Time (s)	Electron temperature (V), Point: 1.001E-4	e+Ar=>e+Ar (m^3/(s*mol)), Point: 1.001E-4	e+Ar=>e+Ars (m^3/(s*mol)), Point: 1.001E-4	e+Ars=>e+Ar (m^3/(s*mol)), Point: 1.001E-4	e+Ar=>2e+Ar+ (m^3/(s*mol)), Point: 1.001E-4	e+Ars=>2e+Ar+ (m^3/(s*mol)), Point: 1.001E-4
0.0000		0.0333	1.2995E9	0.000   	4.7692E5	0.0000	        0.0000
5.0000E-6	1.0832	1.2240E10	95822	        1.1368E8	4470.6	        1.5046E9
1.0000E-5	1.5452	2.0987E10	3.2582E6	2.1821E8	4.6294E5	5.5265E9
1.5000E-5	1.9776	3.0180E10	2.1453E7	3.3794E8	5.2324E6	1.0874E10
2.0000E-5	2.3865	3.9173E10	7.0651E7	4.6343E8	2.3707E7	1.6531E10
2.5000E-5	2.7770	4.7596E10	1.6211E8	5.8920E8	6.7287E7	2.2021E10
3.0000E-5	3.1524	5.5288E10	3.0016E8	7.1219E8	1.4534E8	2.7157E10
3.5000E-5	3.5153	6.2202E10	4.8383E8	8.3075E8	2.6367E8	3.1879E10
4.0000E-5	3.8675	6.8375E10	7.0904E8	9.4408E8	4.2481E8	3.6193E10
4.5000E-5	4.2106	7.3858E10	9.7018E8	1.0519E9	6.2874E8	4.0123E10
5.0000E-5	4.5456	7.8720E10	1.2614E9	1.1541E9	8.7382E8	4.3702E10
5.5000E-5	4.8735	8.3028E10	1.5769E9	1.2509E9	1.1573E9	4.6965E10
6.0000E-5	5.1950	8.6842E10	1.9115E9	1.3425E9	1.4761E9	4.9946E10
6.5000E-5	5.5108	9.0222E10	2.2606E9	1.4293E9	1.8268E9	5.2674E10
7.0000E-5	5.8213	9.3221E10	2.6203E9	1.5114E9	2.2059E9	5.5177E10
7.5000E-5	6.1271	9.5884E10	2.9872E9	1.5892E9	2.6101E9	5.7478E10
8.0000E-5	6.4285	9.8248E10	3.3584E9	1.6629E9	3.0363E9	5.9599E10
8.5000E-5	6.7258	1.0035E11	3.7317E9	1.7329E9	3.4818E9	6.1557E10
9.0000E-5	7.0194	1.0222E11	4.1051E9	1.7994E9	3.9438E9	6.3369E10
9.5000E-5	7.3095	1.0388E11	4.4770E9	1.8627E9	4.4200E9	6.5050E10
1.0000E-4	7.5963	1.0536E11	4.8462E9	1.9229E9	4.9083E9	6.6611E10
1.0500E-4	7.8800	1.0667E11	5.2116E9	1.9803E9	5.4068E9	6.8064E10
1.1000E-4	8.1609	1.0784E11	5.5724E9	2.0351E9	5.9137E9	6.9419E10
1.1500E-4	8.4390	1.0888E11	5.9280E9	2.0873E9	6.4277E9	7.0683E10
1.2000E-4	8.7145	1.0980E11	6.2780E9	2.1373E9	6.9474E9	7.1865E10
1.2500E-4	8.9876	1.1062E11	6.6218E9	2.1851E9	7.4714E9	7.2972E10
1.3000E-4	9.2584	1.1134E11	6.9591E9	2.2309E9	7.9986E9	7.4010E10
1.3500E-4	9.5269	1.1198E11	7.2898E9	2.2748E9	8.5281E9	7.4985E10
1.4000E-4	9.7933	1.1254E11	7.6137E9	2.3169E9	9.0591E9	7.5901E10
1.4500E-4	10.058	1.1303E11	7.9309E9	2.3573E9	9.5909E9	7.6762E10
1.5000E-4	10.320	1.1346E11	8.2412E9	2.3962E9	1.0123E10	7.7574E10
1.5500E-4	10.581	1.1383E11	8.5448E9	2.4335E9	1.0655E10	7.8339E10
1.6000E-4	10.840	1.1415E11	8.8415E9	2.4695E9	1.1186E10	7.9061E10
1.6500E-4	11.097	1.1442E11	9.1316E9	2.5041E9	1.1715E10	7.9742E10
1.7000E-4	11.352	1.1465E11	9.4150E9	2.5374E9	1.2243E10	8.0386E10
1.7500E-4	11.606	1.1484E11	9.6919E9	2.5696E9	1.2769E10	8.0995E10
1.8000E-4	11.858	1.1500E11	9.9624E9	2.6006E9	1.3293E10	8.1572E10
1.8500E-4	12.109	1.1512E11	1.0227E10	2.6306E9	1.3813E10	8.2118E10
1.9000E-4	12.359	1.1521E11	1.0485E10	2.6596E9	1.4331E10	8.2635E10
1.9500E-4	12.607	1.1528E11	1.0737E10	2.6876E9	1.4846E10	8.3126E10
2.0000E-4	12.853	1.1532E11	1.0983E10	2.7147E9	1.5358E10	8.3591E10
2.0500E-4	13.099	1.1534E11	1.1223E10	2.7409E9	1.5866E10	8.4033E10
2.1000E-4	13.343	1.1533E11	1.1458E10	2.7663E9	1.6371E10	8.4453E10
2.1500E-4	13.586	1.1531E11	1.1688E10	2.7909E9	1.6873E10	8.4851E10
2.2000E-4	13.827	1.1527E11	1.1912E10	2.8148E9	1.7370E10	8.5229E10
2.2500E-4	14.068	1.1521E11	1.2130E10	2.8379E9	1.7865E10	8.5589E10
2.3000E-4	14.307	1.1514E11	1.2344E10	2.8603E9	1.8355E10	8.5930E10
2.3500E-4	14.546	1.1506E11	1.2553E10	2.8821E9	1.8841E10	8.6255E10
2.4000E-4	14.783	1.1496E11	1.2757E10	2.9032E9	1.9324E10	8.6564E10
2.4500E-4	15.019	1.1485E11	1.2957E10	2.9237E9	1.9803E10	8.6858E10
2.5000E-4	15.254	1.1473E11	1.3152E10	2.9437E9	2.0277E10	8.7138E10
2.5500E-4	15.489	1.1460E11	1.3343E10	2.9631E9	2.0748E10	8.7405E10
2.6000E-4	15.722	1.1447E11	1.3529E10	2.9819E9	2.1215E10	8.7658E10
2.6500E-4	15.954	1.1432E11	1.3711E10	3.0003E9	2.1678E10	8.7900E10
2.7000E-4	16.186	1.1417E11	1.3890E10	3.0182E9	2.2136E10	8.8130E10
2.7500E-4	16.416	1.1401E11	1.4064E10	3.0356E9	2.2591E10	8.8349E10
2.8000E-4	16.646	1.1384E11	1.4235E10	3.0526E9	2.3042E10	8.8558E10
2.8500E-4	16.875	1.1367E11	1.4401E10	3.0691E9	2.3490E10	8.8756E10
2.9000E-4	17.103	1.1349E11	1.4565E10	3.0852E9	2.3933E10	8.8946E10
2.9500E-4	17.330	1.1331E11	1.4725E10	3.1009E9	2.4372E10	8.9126E10
3.0000E-4	17.556	1.1312E11	1.4881E10	3.1163E9	2.4808E10	8.9297E10
3.0500E-4	17.782	1.1293E11	1.5034E10	3.1312E9	2.5240E10	8.9461E10
3.1000E-4	18.006	1.1274E11	1.5184E10	3.1458E9	2.5668E10	8.9616E10
3.1500E-4	18.230	1.1254E11	1.5331E10	3.1601E9	2.6092E10	8.9764E10
3.2000E-4	18.454	1.1234E11	1.5474E10	3.1740E9	2.6513E10	8.9905E10
3.2500E-4	18.676	1.1214E11	1.5615E10	3.1876E9	2.6929E10	9.0039E10
3.3000E-4	18.898	1.1193E11	1.5753E10	3.2009E9	2.7343E10	9.0167E10
3.3500E-4	19.119	1.1172E11	1.5888E10	3.2139E9	2.7752E10	9.0288E10
3.4000E-4	19.339	1.1151E11	1.6020E10	3.2266E9	2.8158E10	9.0403E10
3.4500E-4	19.559	1.1130E11	1.6150E10	3.2390E9	2.8561E10	9.0512E10
3.5000E-4	19.778	1.1109E11	1.6277E10	3.2512E9	2.8960E10	9.0615E10
3.5500E-4	19.997	1.1087E11	1.6402E10	3.2630E9	2.9355E10	9.0714E10
3.6000E-4	20.214	1.1066E11	1.6524E10	3.2747E9	2.9747E10	9.0807E10
3.6500E-4	20.431	1.1044E11	1.6644E10	3.2860E9	3.0136E10	9.0895E10
3.7000E-4	20.648	1.1022E11	1.6762E10	3.2972E9	3.0521E10	9.0978E10
3.7500E-4	20.864	1.1001E11	1.6877E10	3.3081E9	3.0903E10	9.1057E10
3.8000E-4	21.079	1.0979E11	1.6990E10	3.3187E9	3.1282E10	9.1132E10
3.8500E-4	21.294	1.0957E11	1.7101E10	3.3292E9	3.1657E10	9.1202E10
3.9000E-4	21.508	1.0935E11	1.7210E10	3.3394E9	3.2029E10	9.1268E10
3.9500E-4	21.722	1.0913E11	1.7317E10	3.3494E9	3.2398E10	9.1330E10
4.0000E-4	21.935	1.0891E11	1.7422E10	3.3593E9	3.2764E10	9.1389E10
4.0500E-4	22.147	1.0869E11	1.7525E10	3.3689E9	3.3127E10	9.1444E10
4.1000E-4	22.359	1.0847E11	1.7626E10	3.3783E9	3.3487E10	9.1495E10
4.1500E-4	22.570	1.0825E11	1.7725E10	3.3876E9	3.3844E10	9.1543E10
4.2000E-4	22.781	1.0803E11	1.7823E10	3.3967E9	3.4197E10	9.1588E10
4.2500E-4	22.991	1.0781E11	1.7919E10	3.4056E9	3.4548E10	9.1630E10
4.3000E-4	23.201	1.0759E11	1.8013E10	3.4143E9	3.4896E10	9.1668E10
4.3500E-4	23.411	1.0737E11	1.8105E10	3.4229E9	3.5241E10	9.1704E10
4.4000E-4	23.619	1.0715E11	1.8195E10	3.4313E9	3.5583E10	9.1737E10
4.4500E-4	23.828	1.0693E11	1.8285E10	3.4395E9	3.5923E10	9.1768E10
4.5000E-4	24.035	1.0672E11	1.8372E10	3.4476E9	3.6259E10	9.1796E10
4.5500E-4	24.243	1.0650E11	1.8458E10	3.4556E9	3.6593E10	9.1821E10
4.6000E-4	24.450	1.0628E11	1.8543E10	3.4634E9	3.6924E10	9.1844E10
4.6500E-4	24.656	1.0607E11	1.8626E10	3.4711E9	3.7252E10	9.1865E10
4.7000E-4	24.862	1.0585E11	1.8708E10	3.4786E9	3.7578E10	9.1883E10
4.7500E-4	25.067	1.0564E11	1.8788E10	3.4860E9	3.7901E10	9.1900E10
4.8000E-4	25.272	1.0542E11	1.8867E10	3.4933E9	3.8222E10	9.1914E10
4.8500E-4	25.477	1.0521E11	1.8945E10	3.5004E9	3.8540E10	9.1927E10
4.9000E-4	25.681	1.0500E11	1.9021E10	3.5075E9	3.8855E10	9.1937E10
4.9500E-4	25.885	1.0479E11	1.9096E10	3.5144E9	3.9168E10	9.1946E10
5.0000E-4	26.088	1.0458E11	1.9170E10	3.5212E9	3.9479E10	9.1953E10
5.0500E-4	26.291	1.0437E11	1.9243E10	3.5278E9	3.9787E10	9.1958E10
5.1000E-4	26.493	1.0416E11	1.9314E10	3.5344E9	4.0093E10	9.1961E10
5.1500E-4	26.695	1.0395E11	1.9385E10	3.5409E9	4.0396E10	9.1963E10
5.2000E-4	26.897	1.0374E11	1.9454E10	3.5472E9	4.0697E10	9.1963E10
5.2500E-4	27.098	1.0354E11	1.9522E10	3.5535E9	4.0995E10	9.1962E10
5.3000E-4	27.299	1.0333E11	1.9589E10	3.5596E9	4.1292E10	9.1959E10
5.3500E-4	27.499	1.0313E11	1.9655E10	3.5656E9	4.1586E10	9.1955E10
5.4000E-4	27.699	1.0293E11	1.9720E10	3.5716E9	4.1877E10	9.1950E10
5.4500E-4	27.899	1.0272E11	1.9784E10	3.5774E9	4.2167E10	9.1943E10
5.5000E-4	28.098	1.0252E11	1.9847E10	3.5832E9	4.2454E10	9.1935E10
5.5500E-4	28.297	1.0232E11	1.9910E10	3.5889E9	4.2740E10	9.1926E10
5.6000E-4	28.496	1.0212E11	1.9971E10	3.5944E9	4.3023E10	9.1916E10
5.6500E-4	28.694	1.0192E11	2.0031E10	3.5999E9	4.3304E10	9.1904E10
5.7000E-4	28.892	1.0172E11	2.0090E10	3.6053E9	4.3583E10	9.1892E10
5.7500E-4	29.089	1.0153E11	2.0148E10	3.6106E9	4.3859E10	9.1878E10
5.8000E-4	29.286	1.0133E11	2.0206E10	3.6159E9	4.4134E10	9.1863E10
5.8500E-4	29.483	1.0114E11	2.0262E10	3.6210E9	4.4407E10	9.1848E10
5.9000E-4	29.679	1.0094E11	2.0318E10	3.6261E9	4.4678E10	9.1831E10
5.9500E-4	29.875	1.0075E11	2.0373E10	3.6311E9	4.4947E10	9.1813E10
6.0000E-4	30.071	1.0056E11	2.0427E10	3.6361E9	4.5213E10	9.1795E10
6.0500E-4	30.266	1.0037E11	2.0481E10	3.6409E9	4.5478E10	9.1776E10
6.1000E-4	30.461	1.0018E11	2.0533E10	3.6457E9	4.5741E10	9.1755E10
6.1500E-4	30.656	9.9989E10	2.0585E10	3.6504E9	4.6002E10	9.1734E10
6.2000E-4	30.851	9.9801E10	2.0636E10	3.6551E9	4.6262E10	9.1712E10
6.2500E-4	31.045	9.9614E10	2.0686E10	3.6596E9	4.6519E10	9.1690E10
6.3000E-4	31.238	9.9428E10	2.0736E10	3.6641E9	4.6774E10	9.1666E10
6.3500E-4	31.432	9.9243E10	2.0785E10	3.6686E9	4.7028E10	9.1642E10
6.4000E-4	31.625	9.9059E10	2.0833E10	3.6730E9	4.7280E10	9.1618E10
6.4500E-4	31.818	9.8876E10	2.0880E10	3.6773E9	4.7530E10	9.1592E10
6.5000E-4	32.010	9.8694E10	2.0927E10	3.6815E9	4.7778E10	9.1566E10
6.5500E-4	32.202	9.8513E10	2.0974E10	3.6857E9	4.8025E10	9.1539E10
6.6000E-4	32.394	9.8333E10	2.1019E10	3.6899E9	4.8270E10	9.1512E10
6.6500E-4	32.586	9.8154E10	2.1064E10	3.6940E9	4.8513E10	9.1484E10
6.7000E-4	32.777	9.7976E10	2.1108E10	3.6980E9	4.8755E10	9.1455E10
6.7500E-4	32.968	9.7798E10	2.1152E10	3.7019E9	4.8994E10	9.1426E10
6.8000E-4	33.158	9.7622E10	2.1195E10	3.7058E9	4.9232E10	9.1397E10
6.8500E-4	33.349	9.7447E10	2.1238E10	3.7097E9	4.9469E10	9.1366E10
6.9000E-4	33.539	9.7273E10	2.1280E10	3.7135E9	4.9704E10	9.1336E10
6.9500E-4	33.729	9.7099E10	2.1321E10	3.7173E9	4.9937E10	9.1305E10
7.0000E-4	33.918	9.6927E10	2.1362E10	3.7210E9	5.0169E10	9.1273E10
7.0500E-4	34.107	9.6756E10	2.1402E10	3.7246E9	5.0399E10	9.1241E10
7.1000E-4	34.296	9.6585E10	2.1442E10	3.7282E9	5.0627E10	9.1208E10
7.1500E-4	34.485	9.6416E10	2.1481E10	3.7317E9	5.0854E10	9.1175E10
7.2000E-4	34.674	9.6247E10	2.1519E10	3.7353E9	5.1080E10	9.1142E10
7.2500E-4	34.862	9.6080E10	2.1558E10	3.7387E9	5.1304E10	9.1108E10
7.3000E-4	35.050	9.5913E10	2.1595E10	3.7421E9	5.1526E10	9.1074E10
7.3500E-4	35.237	9.5747E10	2.1632E10	3.7455E9	5.1747E10	9.1040E10
7.4000E-4	35.425	9.5582E10	2.1669E10	3.7488E9	5.1967E10	9.1005E10
7.4500E-4	35.612	9.5418E10	2.1705E10	3.7521E9	5.2185E10	9.0970E10
7.5000E-4	35.798	9.5255E10	2.1741E10	3.7553E9	5.2401E10	9.0934E10
7.5500E-4	35.985	9.5093E10	2.1776E10	3.7585E9	5.2617E10	9.0898E10
7.6000E-4	36.171	9.4932E10	2.1811E10	3.7616E9	5.2830E10	9.0862E10
7.6500E-4	36.357	9.4772E10	2.1845E10	3.7647E9	5.3043E10	9.0825E10
7.7000E-4	36.543	9.4613E10	2.1879E10	3.7678E9	5.3254E10	9.0788E10
7.7500E-4	36.729	9.4454E10	2.1913E10	3.7708E9	5.3463E10	9.0751E10
7.8000E-4	36.914	9.4296E10	2.1946E10	3.7738E9	5.3672E10	9.0714E10
7.8500E-4	37.099	9.4140E10	2.1978E10	3.7768E9	5.3879E10	9.0676E10
7.9000E-4	37.284	9.3984E10	2.2010E10	3.7797E9	5.4085E10	9.0638E10
7.9500E-4	37.469	9.3829E10	2.2042E10	3.7826E9	5.4289E10	9.0600E10
8.0000E-4	37.653	9.3674E10	2.2074E10	3.7854E9	5.4492E10	9.0562E10
8.0500E-4	37.837	9.3521E10	2.2105E10	3.7882E9	5.4694E10	9.0523E10
8.1000E-4	38.021	9.3368E10	2.2135E10	3.7910E9	5.4895E10	9.0484E10
8.1500E-4	38.205	9.3216E10	2.2166E10	3.7937E9	5.5094E10	9.0445E10
8.2000E-4	38.388	9.3065E10	2.2195E10	3.7965E9	5.5292E10	9.0406E10
8.2500E-4	38.571	9.2915E10	2.2225E10	3.7991E9	5.5489E10	9.0366E10
8.3000E-4	38.754	9.2766E10	2.2254E10	3.8018E9	5.5685E10	9.0327E10
8.3500E-4	38.937	9.2617E10	2.2283E10	3.8044E9	5.5879E10	9.0287E10
8.4000E-4	39.119	9.2469E10	2.2311E10	3.8069E9	5.6072E10	9.0247E10
8.4500E-4	39.302	9.2322E10	2.2339E10	3.8095E9	5.6264E10	9.0207E10
8.5000E-4	39.484	9.2176E10	2.2367E10	3.8120E9	5.6455E10	9.0166E10
8.5500E-4	39.665	9.2031E10	2.2395E10	3.8145E9	5.6645E10	9.0126E10
8.6000E-4	39.847	9.1886E10	2.2422E10	3.8169E9	5.6833E10	9.0085E10
8.6500E-4	40.029	9.1742E10	2.2448E10	3.8193E9	5.7020E10	9.0044E10
8.7000E-4	40.210	9.1599E10	2.2475E10	3.8217E9	5.7206E10	9.0003E10
8.7500E-4	40.391	9.1456E10	2.2501E10	3.8240E9	5.7391E10	8.9962E10
8.8000E-4	40.571	9.1314E10	2.2527E10	3.8264E9	5.7575E10	8.9921E10
8.8500E-4	40.752	9.1173E10	2.2552E10	3.8287E9	5.7758E10	8.9879E10
8.9000E-4	40.932	9.1033E10	2.2577E10	3.8309E9	5.7939E10	8.9838E10
8.9500E-4	41.112	9.0893E10	2.2602E10	3.8332E9	5.8119E10	8.9796E10
9.0000E-4	41.292	9.0754E10	2.2626E10	3.8354E9	5.8299E10	8.9754E10
9.0500E-4	41.472	9.0616E10	2.2651E10	3.8375E9	5.8477E10	8.9712E10
9.1000E-4	41.652	9.0478E10	2.2674E10	3.8397E9	5.8654E10	8.9670E10
9.1500E-4	41.831	9.0342E10	2.2698E10	3.8418E9	5.8829E10	8.9628E10
9.2000E-4	42.010	9.0205E10	2.2721E10	3.8439E9	5.9004E10	8.9586E10
9.2500E-4	42.189	9.0070E10	2.2744E10	3.8460E9	5.9178E10	8.9543E10
9.3000E-4	42.368	8.9935E10	2.2767E10	3.8480E9	5.9350E10	8.9501E10
9.3500E-4	42.546	8.9801E10	2.2790E10	3.8500E9	5.9522E10	8.9458E10
9.4000E-4	42.724	8.9668E10	2.2812E10	3.8520E9	5.9692E10	8.9416E10
9.4500E-4	42.902	8.9535E10	2.2834E10	3.8540E9	5.9861E10	8.9373E10
9.5000E-4	43.080	8.9403E10	2.2856E10	3.8559E9	6.0030E10	8.9330E10
9.5500E-4	43.258	8.9271E10	2.2877E10	3.8578E9	6.0197E10	8.9287E10
9.6000E-4	43.436	8.9140E10	2.2898E10	3.8597E9	6.0363E10	8.9244E10
9.6500E-4	43.613	8.9010E10	2.2919E10	3.8616E9	6.0528E10	8.9201E10
9.7000E-4	43.790	8.8881E10	2.2940E10	3.8634E9	6.0692E10	8.9158E10
9.7500E-4	43.967	8.8752E10	2.2960E10	3.8652E9	6.0855E10	8.9115E10
9.8000E-4	44.144	8.8623E10	2.2980E10	3.8670E9	6.1017E10	8.9072E10
9.8500E-4	44.321	8.8496E10	2.3000E10	3.8688E9	6.1178E10	8.9029E10
9.9000E-4	44.497	8.8368E10	2.3020E10	3.8705E9	6.1339E10	8.8985E10
9.9500E-4	44.673	8.8242E10	2.3039E10	3.8722E9	6.1498E10	8.8942E10
0.0010000	44.849	8.8116E10	2.3058E10	3.8739E9	6.1656E10	8.8899E10
